# col. 0: scale factor a
# col. 1: g_qp (a)
# col. 2: g_pp (a)
# col. 3: g (a)
# col. 4: g_v (a)
# col. 5: g_dot (a)
# col. 6: tau (a)

0.001  0  1  1  1  1.5  4.44089e-16
0.00101361  0.013116  0.98109  1.01946  0.975278  1.51441  0.015438
0.00102741  0.0264106  0.962884  1.03931  0.951157  1.52893  0.0310936
0.00104139  0.039886  0.945348  1.05955  0.927621  1.54354  0.0469695
0.00105556  0.0535449  0.928453  1.08019  0.904658  1.55825  0.0630688
0.00106993  0.0664746  0.912169  1.10124  0.882253  1.57306  0.0793945
0.00108449  0.079558  0.89647  1.1227  0.860393  1.58797  0.0959496
0.00109925  0.0928194  0.881328  1.14459  0.839065  1.60299  0.112737
0.00111421  0.106261  0.86672  1.16691  0.818255  1.6181  0.12976
0.00112937  0.11907  0.852623  1.18968  0.797953  1.63332  0.147022
0.00114474  0.132012  0.839014  1.2129  0.778144  1.64864  0.164526
0.00116032  0.14513  0.825872  1.23658  0.758818  1.66406  0.182275
0.00117612  0.158426  0.813178  1.26072  0.739964  1.67958  0.200272
0.00119212  0.171173  0.800913  1.28535  0.721568  1.69521  0.218521
0.00120835  0.184036  0.789059  1.31047  0.703622  1.71094  0.237025
0.00122479  0.197074  0.7776  1.33608  0.686113  1.72678  0.255788
0.00124146  0.21029  0.766517  1.36221  0.669031  1.74272  0.274813
0.00125836  0.223028  0.755798  1.38885  0.652367  1.75877  0.294103
0.00127548  0.235869  0.745426  1.41603  0.63611  1.77492  0.313663
0.00129284  0.248886  0.735389  1.44374  0.62025  1.79118  0.333495
0.00131044  0.26208  0.725672  1.47201  0.604778  1.80754  0.353603
0.00132827  0.274859  0.716264  1.50084  0.589684  1.82402  0.373992
0.00134635  0.287732  0.707152  1.53024  0.574959  1.8406  0.394664
0.00136468  0.30078  0.698325  1.56023  0.560595  1.85729  0.415624
0.00138325  0.314006  0.689772  1.59082  0.546583  1.87408  0.436876
0.00140207  0.326874  0.681482  1.62202  0.532915  1.89099  0.458423
0.00142116  0.339827  0.673446  1.65384  0.519581  1.90801  0.480269
0.0014405  0.352957  0.665654  1.6863  0.506575  1.92513  0.502419
0.0014601  0.366266  0.658097  1.7194  0.493887  1.94237  0.524876
0.00147998  0.379267  0.650766  1.75317  0.481511  1.95972  0.547645
0.00150012  0.392347  0.643654  1.78761  0.46944  1.97718  0.57073
0.00152053  0.405606  0.636752  1.82274  0.457665  1.99475  0.594135
0.00154123  0.419045  0.630053  1.85857  0.446179  2.01243  0.617864
0.0015622  0.432222  0.623549  1.89512  0.434976  2.03023  0.641922
0.00158347  0.445474  0.617233  1.9324  0.424049  2.04814  0.666313
0.00160502  0.458906  0.6111  1.97042  0.413391  2.06617  0.691042
0.00162686  0.472521  0.605142  2.00921  0.402996  2.08431  0.716112
0.001649  0.485915  0.599354  2.04877  0.392857  2.10257  0.74153
0.00167144  0.499382  0.59373  2.08913  0.382968  2.12094  0.767299
0.00169419  0.513032  0.588263  2.13029  0.373323  2.13943  0.793424
0.00171725  0.526867  0.58295  2.17228  0.363916  2.15804  0.819911
0.00174062  0.54052  0.577784  2.21511  0.354742  2.17676  0.846763
0.00176431  0.554243  0.57276  2.2588  0.345795  2.19561  0.873986
0.00178832  0.568153  0.567875  2.30337  0.337069  2.21457  0.901584
0.00181266  0.582252  0.563123  2.34883  0.328559  2.23365  0.929564
0.00183733  0.596203  0.558501  2.39521  0.320259  2.25285  0.957929
0.00186234  0.610224  0.554003  2.44251  0.312166  2.27218  0.986686
0.00188769  0.624435  0.549626  2.49077  0.304273  2.29162  1.01584
0.00191338  0.638841  0.545366  2.53999  0.296575  2.31119  1.04539
0.00193942  0.65313  0.541219  2.59021  0.289069  2.33088  1.07536
0.00196581  0.66749  0.537182  2.64143  0.28175  2.3507  1.10573
0.00199257  0.682045  0.533252  2.69369  0.274612  2.37064  1.13652
0.00201969  0.696799  0.529424  2.74699  0.267651  2.3907  1.16774
0.00204717  0.711467  0.525696  2.80137  0.260864  2.41089  1.19939
0.00207504  0.726207  0.522065  2.85684  0.254246  2.43121  1.23147
0.00210328  0.741148  0.518528  2.91343  0.247792  2.45165  1.26399
0.0021319  0.756292  0.515081  2.97115  0.2415  2.47222  1.29696
0.00216092  0.771379  0.511723  3.03004  0.235364  2.49292  1.33039
0.00219033  0.786541  0.50845  3.09012  0.229381  2.51375  1.36427
0.00222014  0.801909  0.50526  3.15141  0.223548  2.53471  1.39862
0.00225035  0.817487  0.502151  3.21393  0.21786  2.5558  1.43344
0.00228098  0.833035  0.49912  3.27771  0.212315  2.57702  1.46874
0.00231202  0.84866  0.496165  3.34278  0.206908  2.59837  1.50452
0.00234349  0.864499  0.493283  3.40916  0.201636  2.61986  1.5408
0.00237538  0.880553  0.490473  3.47688  0.196497  2.64148  1.57757
0.00240771  0.896603  0.487732  3.54596  0.191486  2.66323  1.61485
0.00244048  0.912736  0.485059  3.61644  0.186601  2.68512  1.65264
0.0024737  0.929088  0.482451  3.68834  0.181838  2.70715  1.69095
0.00250736  0.945663  0.479907  3.76169  0.177194  2.72931  1.72978
0.00254149  0.962259  0.477425  3.83653  0.172668  2.75161  1.76915
0.00257608  0.978942  0.475003  3.91287  0.168255  2.77405  1.80905
0.00261114  0.995853  0.47264  3.99076  0.163952  2.79663  1.84951
0.00264667  1.01299  0.470334  4.07022  0.159759  2.81935  1.89051
0.0026827  1.03018  0.468082  4.15129  0.15567  2.84221  1.93208
0.00271921  1.04746  0.465885  4.234  0.151685  2.86521  1.97422
0.00275622  1.06497  0.46374  4.31837  0.147799  2.88835  2.01694
0.00279373  1.08273  0.461646  4.40446  0.144012  2.91164  2.06024
0.00283175  1.10055  0.459601  4.49228  0.14032  2.93508  2.10413
0.00287029  1.11847  0.457605  4.58188  0.136722  2.95866  2.14863
0.00290935  1.13664  0.455655  4.6733  0.133214  2.98238  2.19374
0.00294895  1.15505  0.453752  4.76656  0.129795  3.00625  2.23946
0.00298908  1.17356  0.451892  4.86171  0.126462  3.03027  2.28581
0.00302977  1.19217  0.450076  4.95879  0.123213  3.05444  2.33279
0.003071  1.21104  0.448303  5.05783  0.120047  3.07876  2.38041
0.0031128  1.23016  0.44657  5.15888  0.116961  3.10324  2.42869
0.00315516  1.2494  0.444877  5.26198  0.113953  3.12786  2.47763
0.0031981  1.26876  0.443223  5.36716  0.111021  3.15264  2.52724
0.00324163  1.28838  0.441607  5.47447  0.108163  3.17757  2.57752
0.00328575  1.30826  0.440029  5.58396  0.105378  3.20265  2.62849
0.00333047  1.32828  0.438486  5.69567  0.102663  3.22789  2.68016
0.00337579  1.34843  0.436978  5.80964  0.100018  3.25329  2.73254
0.00342174  1.36886  0.435505  5.92592  0.0974396  3.27885  2.78563
0.00346831  1.38956  0.434065  6.04455  0.0949268  3.30456  2.83945
0.00351551  1.41042  0.432657  6.1656  0.0924779  3.33043  2.89401
0.00356336  1.43142  0.431281  6.2891  0.0900912  3.35647  2.94931
0.00361185  1.4527  0.429936  6.4151  0.0877654  3.38267  3.00536
0.00366101  1.47427  0.428622  6.54366  0.0854987  3.40903  3.06218
0.00371083  1.49603  0.427337  6.67483  0.0832898  3.43555  3.11978
0.00376134  1.51793  0.42608  6.80866  0.0811371  3.46224  3.17816
0.00381253  1.54013  0.424851  6.9452  0.0790394  3.4891  3.23735
0.00386442  1.56264  0.42365  7.08452  0.0769952  3.51613  3.29734
0.00391701  1.58534  0.422476  7.22666  0.0750031  3.54332  3.35815
0.00397032  1.60821  0.421327  7.37169  0.073062  3.57068  3.41979
0.00402436  1.63139  0.420204  7.51967  0.0711704  3.59821  3.48227
0.00407913  1.65489  0.419105  7.67065  0.0693272  3.62592  3.5456
0.00413465  1.67861  0.418031  7.82469  0.0675311  3.6538  3.6098
0.00419092  1.7025  0.41698  7.98187  0.0657809  3.68185  3.67488
0.00424796  1.72672  0.415953  8.14224  0.0640756  3.71008  3.74084
0.00430577  1.75127  0.414948  8.30586  0.0624139  3.73848  3.80771
0.00436437  1.77607  0.413964  8.47282  0.0607948  3.76706  3.87548
0.00442377  1.80106  0.413003  8.64316  0.0592171  3.79582  3.94418
0.00448398  1.82639  0.412062  8.81697  0.05768  3.82476  4.01382
0.004545  1.85206  0.411141  8.99431  0.0561822  3.85389  4.08441
0.00460686  1.878  0.410241  9.17525  0.0547229  3.88319  4.15597
0.00466956  1.90415  0.40936  9.35987  0.0533011  3.91268  4.2285
0.00473311  1.93066  0.408498  9.54825  0.0519158  3.94235  4.30202
0.00479753  1.95752  0.407654  9.74046  0.050566  3.97221  4.37654
0.00486282  1.98468  0.406829  9.93657  0.049251  4.00226  4.45208
0.00492901  2.01206  0.406022  10.1367  0.0479698  4.03249  4.52865
0.00499609  2.03982  0.405232  10.3409  0.0467216  4.06292  4.60626
0.00506408  2.06795  0.404459  10.5492  0.0455055  4.09354  4.68493
0.00513301  2.0964  0.403702  10.7617  0.0443206  4.12435  4.76468
0.00520287  2.12509  0.402962  10.9786  0.0431664  4.15535  4.84551
0.00527368  2.15417  0.402237  11.1999  0.0420418  4.18655  4.92744
0.00534545  2.18365  0.401528  11.4258  0.0409463  4.21795  5.0105
0.0054182  2.21347  0.400834  11.6562  0.039879  4.24954  5.09468
0.00549194  2.24355  0.400154  11.8913  0.0388392  4.28133  5.18001
0.00556669  2.27404  0.39949  12.1311  0.0378263  4.31332  5.26651
0.00564245  2.30494  0.398839  12.3759  0.0368395  4.34552  5.35419
0.00571924  2.33621  0.398202  12.6257  0.0358782  4.37792  5.44306
0.00579708  2.36776  0.397578  12.8805  0.0349417  4.41052  5.53314
0.00587598  2.39974  0.396968  13.1405  0.0340295  4.44333  5.62445
0.00595595  2.43215  0.396371  13.4058  0.0331408  4.47635  5.717
0.00603701  2.46497  0.395786  13.6766  0.0322752  4.50958  5.81082
0.00611917  2.49807  0.395213  13.9528  0.0314319  4.54301  5.90591
0.00620245  2.53163  0.394653  14.2347  0.0306104  4.57666  6.00231
0.00628687  2.56565  0.394104  14.5223  0.0298103  4.61053  6.10001
0.00637243  2.60009  0.393567  14.8157  0.0290308  4.6446  6.19905
0.00645916  2.63485  0.393041  15.1152  0.0282716  4.6789  6.29943
0.00654707  2.67009  0.392526  15.4207  0.027532  4.71341  6.40119
0.00663617  2.7058  0.392022  15.7325  0.0268116  4.74814  6.50433
0.00672649  2.74197  0.391528  16.0506  0.0261099  4.78309  6.60888
0.00681804  2.77848  0.391045  16.3752  0.0254264  4.81826  6.71485
0.00691083  2.81548  0.390572  16.7065  0.0247606  4.85366  6.82226
0.00700489  2.85299  0.390109  17.0444  0.0241121  4.88928  6.93114
0.00710022  2.89099  0.389655  17.3893  0.0234805  4.92514  7.0415
0.00719686  2.92935  0.389211  17.7412  0.0228653  4.96121  7.15337
0.00729481  2.96823  0.388776  18.1003  0.022266  4.99752  7.26676
0.00739409  3.00765  0.38835  18.4667  0.0216824  5.03406  7.3817
0.00749472  3.04758  0.387933  18.8405  0.0211139  5.07084  7.4982
0.00759672  3.0879  0.387524  19.222  0.0205602  5.10785  7.61628
0.00770011  3.12877  0.387124  19.6113  0.0200209  5.14509  7.73598
0.00780491  3.1702  0.386733  20.0085  0.0194957  5.18258  7.85731
0.00791113  3.21217  0.386349  20.4138  0.0189841  5.2203  7.98029
0.0080188  3.25457  0.385974  20.8274  0.0184858  5.25827  8.10494
0.00812794  3.29754  0.385606  21.2494  0.0180006  5.29648  8.2313
0.00823856  3.3411  0.385245  21.6801  0.0175279  5.33493  8.35937
0.00835069  3.38524  0.384893  22.1195  0.0170676  5.37363  8.48919
0.00846434  3.42983  0.384547  22.5678  0.0166193  5.41258  8.62078
0.00857954  3.47503  0.384209  23.0254  0.0161827  5.45178  8.75416
0.0086963  3.52084  0.383877  23.4922  0.0157575  5.49123  8.88935
0.00881466  3.56726  0.383553  23.9686  0.0153433  5.53094  9.02639
0.00893462  3.61418  0.383235  24.4547  0.01494  5.5709  9.1653
0.00905622  3.66173  0.382923  24.9507  0.0145472  5.61111  9.30609
0.00917948  3.70992  0.382618  25.4569  0.0141647  5.65159  9.4488
0.00930441  3.75877  0.382319  25.9734  0.0137922  5.69233  9.59346
0.00943104  3.80814  0.382027  26.5004  0.0134294  5.73333  9.74009
0.0095594  3.85817  0.38174  27.0382  0.013076  5.77459  9.88871
0.0096895  3.90889  0.381459  27.5869  0.012732  5.81612  10.0394
0.00982137  3.9603  0.381184  28.1469  0.0123969  5.85792  10.1921
0.00995504  4.01226  0.380915  28.7183  0.0120705  5.89999  10.3468
0.0100905  4.06493  0.380651  29.3013  0.0117528  5.94233  10.5037
0.0102279  4.11831  0.380393  29.8963  0.0114433  5.98494  10.6627
0.0103671  4.17242  0.38014  30.5034  0.0111419  6.02783  10.8239
0.0105082  4.22713  0.379892  31.1229  0.0108484  6.071  10.9873
0.0106512  4.28258  0.379649  31.755  0.0105626  6.11444  11.1529
0.0107961  4.33878  0.379411  32.4001  0.0102843  6.15817  11.3208
0.0109431  4.39575  0.379178  33.0583  0.0100133  6.20218  11.4909
0.011092  4.45336  0.378949  33.73  0.00974937  6.24648  11.6634
0.011243  4.51175  0.378726  34.4154  0.00949237  6.29106  11.8382
0.011396  4.57093  0.378507  35.1148  0.00924211  6.33593  12.0154
0.0115511  4.63092  0.378292  35.8285  0.0089984  6.3811  12.195
0.0117083  4.69159  0.378082  36.5567  0.00876109  6.42655  12.3771
0.0118676  4.75309  0.377876  37.2999  0.00853001  6.47231  12.5616
0.0120291  4.81542  0.377674  38.0582  0.00830498  6.51836  12.7487
0.0121929  4.8786  0.377476  38.832  0.00808587  6.56471  12.9382
0.0123588  4.94252  0.377282  39.6216  0.0078725  6.61136  13.1304
0.012527  5.00729  0.377093  40.4273  0.00766474  6.65831  13.3252
0.0126975  5.07295  0.376907  41.2495  0.00746243  6.70557  13.5226
0.0128703  5.1395  0.376725  42.0885  0.00726543  6.75314  13.7228
0.0130455  5.20685  0.376546  42.9447  0.00707361  6.80102  13.9256
0.013223  5.27509  0.376372  43.8183  0.00688683  6.84921  14.1312
0.013403  5.34427  0.3762  44.7098  0.00670496  6.89772  14.3397
0.0135854  5.41438  0.376033  45.6195  0.00652787  6.94654  14.5509
0.0137703  5.48535  0.375868  46.5478  0.00635543  6.99568  14.765
0.0139577  5.55726  0.375707  47.4951  0.00618753  7.04515  14.9821
0.0141477  5.63015  0.375549  48.4617  0.00602404  7.09493  15.2021
0.0143402  5.70403  0.375395  49.4481  0.00586486  7.14504  15.4251
0.0145354  5.77882  0.375243  50.4546  0.00570986  7.19548  15.6511
0.0147332  5.8546  0.375095  51.4817  0.00555894  7.24625  15.8802
0.0149337  5.93142  0.37495  52.5298  0.00541199  7.29735  16.1124
0.015137  6.00928  0.374807  53.5993  0.00526891  7.34879  16.3478
0.015343  6.0881  0.374668  54.6907  0.0051296  7.40056  16.5864
0.0155518  6.16798  0.374531  55.8044  0.00499395  7.45267  16.8282
0.0157635  6.24894  0.374397  56.9408  0.00486188  7.50513  17.0734
0.015978  6.33101  0.374266  58.1005  0.00473328  7.55792  17.3218
0.0161955  6.4141  0.374137  59.2839  0.00460808  7.61107  17.5737
0.0164159  6.49829  0.374011  60.4915  0.00448617  7.66456  17.829
0.0166393  6.58364  0.373888  61.7237  0.00436748  7.71841  18.0877
0.0168658  6.67014  0.373767  62.9812  0.00425191  7.77261  18.35
0.0170953  6.75774  0.373649  64.2644  0.00413939  7.82716  18.6158
0.017328  6.8465  0.373533  65.5738  0.00402983  7.88207  18.8853
0.0175638  6.93647  0.373419  66.9099  0.00392317  7.93735  19.1584
0.0178028  7.02766  0.373307  68.2734  0.00381932  7.99299  19.4353
0.0180451  7.12002  0.373198  69.6648  0.0037182  8.04899  19.7159
0.0182907  7.2136  0.373091  71.0846  0.00361976  8.10536  20.0003
0.0185397  7.30846  0.372986  72.5335  0.00352391  8.16211  20.2886
0.018792  7.40461  0.372884  74.012  0.00343059  8.21922  20.5809
0.0190477  7.50199  0.372783  75.5207  0.00333973  8.27672  20.8771
0.019307  7.60067  0.372684  77.0602  0.00325128  8.33459  21.1773
0.0195697  7.70069  0.372588  78.6313  0.00316515  8.39285  21.4816
0.0198361  7.80207  0.372493  80.2344  0.0030813  8.45149  21.7901
0.0201061  7.90475  0.3724  81.8704  0.00299967  8.51051  22.1028
0.0203797  8.00881  0.37231  83.5398  0.00292019  8.56993  22.4197
0.0206571  8.11428  0.37222  85.2434  0.00284281  8.62974  22.741
0.0209382  8.22119  0.372133  86.9817  0.00276747  8.68994  23.0666
0.0212232  8.32948  0.372048  88.7557  0.00269413  8.75054  23.3966
0.021512  8.43922  0.371964  90.5659  0.00262272  8.81154  23.7312
0.0218048  8.55045  0.371882  92.4132  0.0025532  8.87295  24.0703
0.0221015  8.66319  0.371801  94.2982  0.00248551  8.93476  24.414
0.0224023  8.7774  0.371723  96.2218  0.00241962  8.99698  24.7623
0.0227072  8.89313  0.371645  98.1847  0.00235546  9.05961  25.1155
0.0230163  9.01044  0.37157  100.188  0.00229301  9.12266  25.4734
0.0233295  9.12935  0.371496  102.232  0.0022322  9.18612  25.8362
0.023647  9.24981  0.371423  104.318  0.002173  9.25001  26.2039
0.0239689  9.37188  0.371352  106.446  0.00211537  9.31431  26.5767
0.0242951  9.49561  0.371282  108.618  0.00205927  9.37905  26.9545
0.0246257  9.62102  0.371214  110.835  0.00200464  9.44421  27.3375
0.0249609  9.74809  0.371147  113.097  0.00195146  9.5098  27.7257
0.0253006  9.87684  0.371081  115.405  0.00189969  9.57583  28.1191
0.025645  10.0074  0.371017  117.76  0.00184929  9.6423  28.5179
0.025994  10.1396  0.370954  120.164  0.00180022  9.70921  28.9222
0.0263478  10.2737  0.370892  122.616  0.00175245  9.77657  29.3319
0.0267063  10.4095  0.370831  125.119  0.00170595  9.84437  29.7472
0.0270698  10.5472  0.370772  127.673  0.00166068  9.91262  30.1682
0.0274382  10.6867  0.370714  130.28  0.0016166  9.98132  30.5949
0.0278117  10.8281  0.370657  132.939  0.00157369  10.0505  31.0274
0.0281902  10.9714  0.370601  135.653  0.00153192  10.1201  31.4658
0.0285738  11.1166  0.370547  138.423  0.00149126  10.1902  31.9102
0.0289627  11.2638  0.370493  141.249  0.00145167  10.2607  32.3606
0.0293569  11.413  0.370441  144.133  0.00141313  10.3318  32.8171
0.0297565  11.5641  0.370389  147.076  0.00137561  10.4032  33.2799
0.0301614  11.7173  0.370339  150.08  0.00133909  10.4752  33.7489
0.0305719  11.8726  0.370289  153.144  0.00130353  10.5477  34.2244
0.030988  12.03  0.370241  156.272  0.00126891  10.6206  34.7063
0.0314098  12.1894  0.370194  159.463  0.00123522  10.694  35.1947
0.0318372  12.3511  0.370147  162.72  0.00120241  10.7679  35.6898
0.0322705  12.5149  0.370102  166.043  0.00117048  10.8423  36.1917
0.0327097  12.6809  0.370057  169.435  0.00113939  10.9172  36.7004
0.0331549  12.8492  0.370013  172.896  0.00110912  10.9926  37.216
0.0336062  13.0197  0.369971  176.427  0.00107966  11.0685  37.7386
0.0340635  13.1926  0.369929  180.031  0.00105098  11.1449  38.2683
0.0345271  13.3677  0.369887  183.709  0.00102306  11.2218  38.8052
0.034997  13.5452  0.369847  187.462  0.00099588  11.2992  39.3495
0.0354733  13.7252  0.369808  191.291  0.000969421  11.3772  39.9011
0.0359561  13.9075  0.369769  195.199  0.000943663  11.4556  40.4603
0.0364455  14.0923  0.369731  199.187  0.000918589  11.5346  41.027
0.0369415  14.2796  0.369694  203.257  0.000894179  11.6141  41.6015
0.0374443  14.4695  0.369657  207.41  0.000870417  11.6941  42.1838
0.0379539  14.6619  0.369622  211.648  0.000847286  11.7747  42.774
0.0384704  14.8569  0.369587  215.972  0.000824768  11.8558  43.3723
0.038994  15.0545  0.369552  220.385  0.000802848  11.9375  43.9786
0.0395247  15.2548  0.369519  224.889  0.000781509  12.0197  44.5933
0.0400627  15.4579  0.369486  229.484  0.000760737  12.1025  45.2163
0.0406079  15.6637  0.369454  234.174  0.000740516  12.1858  45.8478
0.0411606  15.8722  0.369422  238.959  0.000720832  12.2696  46.4878
0.0417208  16.0835  0.369391  243.843  0.00070167  12.354  47.1366
0.0422886  16.2978  0.369361  248.826  0.000683017  12.439  47.7942
0.0428641  16.5149  0.369331  253.911  0.000664859  12.5246  48.4608
0.0434475  16.7349  0.369302  259.101  0.000647183  12.6107  49.1364
0.0440388  16.958  0.369273  264.397  0.000629976  12.6974  49.8212
0.0446382  17.184  0.369245  269.801  0.000613226  12.7847  50.5153
0.0452457  17.4132  0.369218  275.315  0.000596921  12.8726  51.2189
0.0458615  17.6453  0.369191  280.943  0.000581049  12.9611  51.932
0.0464857  17.8807  0.369165  286.685  0.000565598  13.0501  52.6549
0.0471183  18.1192  0.369139  292.545  0.000550558  13.1398  53.3876
0.0477596  18.361  0.369114  298.526  0.000535917  13.23  54.1302
0.0484096  18.606  0.369089  304.628  0.000521665  13.3209  54.8829
0.0490685  18.8544  0.369065  310.855  0.000507792  13.4123  55.6459
0.0497363  19.1061  0.369041  317.21  0.000494287  13.5044  56.4193
0.0504132  19.3612  0.369018  323.695  0.000481141  13.5971  57.2032
0.0510993  19.6198  0.368995  330.312  0.000468344  13.6904  57.9977
0.0517947  19.8818  0.368972  337.065  0.000455888  13.7844  58.8031
0.0524997  20.1475  0.368951  343.956  0.000443762  13.8789  59.6194
0.0532142  20.4167  0.368929  350.988  0.000431958  13.9741  60.4468
0.0539384  20.6896  0.368908  358.164  0.000420469  14.07  61.2854
0.0546725  20.9661  0.368887  365.487  0.000409284  14.1665  62.1355
0.0554166  21.2464  0.368867  372.96  0.000398397  14.2636  62.9971
0.0561708  21.5305  0.368847  380.585  0.000387799  14.3614  63.8705
0.0569353  21.8185  0.368828  388.367  0.000377483  14.4599  64.7557
0.0577102  22.1103  0.368809  396.308  0.000367441  14.559  65.653
0.0584956  22.4061  0.36879  404.411  0.000357666  14.6587  66.5624
0.0592917  22.706  0.368772  412.68  0.00034815  14.7592  67.4842
0.0600987  23.0098  0.368754  421.118  0.000338888  14.8603  68.4186
0.0609166  23.3178  0.368737  429.729  0.000329872  14.9621  69.3656
0.0617457  23.63  0.368719  438.516  0.000321096  15.0646  70.3256
0.062586  23.9464  0.368702  447.483  0.000312553  15.1678  71.2986
0.0634378  24.267  0.368686  456.634  0.000304237  15.2716  72.2848
0.0643012  24.592  0.36867  465.971  0.000296143  15.3762  73.2844
0.0651763  24.9215  0.368654  475.5  0.000288263  15.4815  74.2976
0.0660634  25.2554  0.368638  485.223  0.000280594  15.5874  75.3246
0.0669625  25.5938  0.368623  495.146  0.000273128  15.6941  76.3655
0.0678739  25.9368  0.368608  505.271  0.000265861  15.8015  77.4206
0.0687976  26.2844  0.368594  515.603  0.000258787  15.9097  78.49
0.0697339  26.6368  0.368579  526.147  0.000251901  16.0185  79.5739
0.070683  26.9939  0.368565  536.906  0.000245198  16.1281  80.6726
0.071645  27.3558  0.368552  547.886  0.000238674  16.2385  81.7862
0.0726201  27.7227  0.368538  559.09  0.000232324  16.3495  82.9149
0.0736084  28.0946  0.368525  570.523  0.000226142  16.4614  84.059
0.0746102  28.4714  0.368512  582.19  0.000220125  16.5739  85.2186
0.0756257  28.8534  0.368499  594.096  0.000214268  16.6873  86.3939
0.0766549  29.2406  0.368487  606.245  0.000208566  16.8014  87.5852
0.0776982  29.633  0.368475  618.642  0.000203017  16.9162  88.7927
0.0787557  30.0307  0.368463  631.293  0.000197615  17.0319  90.0166
0.0798275  30.4338  0.368451  644.203  0.000192357  17.1483  91.2571
0.080914  30.8424  0.368439  657.376  0.000187239  17.2655  92.5144
0.0820152  31.2565  0.368428  670.819  0.000182257  17.3835  93.7888
0.0831314  31.6761  0.368417  684.537  0.000177407  17.5023  95.0805
0.0842628  32.1015  0.368406  698.535  0.000172687  17.6219  96.3898
0.0854096  32.5327  0.368396  712.819  0.000168093  17.7423  97.7168
0.086572  32.9697  0.368386  727.395  0.00016362  17.8635  99.0618
0.0877503  33.4125  0.368375  742.269  0.000159267  17.9856  100.425
0.0889446  33.8614  0.368365  757.446  0.00015503  18.1084  101.807
0.0901551  34.3164  0.368356  772.934  0.000150905  18.2321  103.207
0.0913821  34.7776  0.368346  788.739  0.000146891  18.3566  104.627
0.0926258  35.2449  0.368337  804.866  0.000142983  18.482  106.065
0.0938864  35.7186  0.368328  821.323  0.000139179  18.6082  107.524
0.0951642  36.1987  0.368319  838.115  0.000135477  18.7353  109.002
0.0964594  36.6853  0.36831  855.251  0.000131873  18.8632  110.5
0.0977722  37.1784  0.368301  872.737  0.000128366  18.992  112.018
0.0991028  37.6782  0.368293  890.58  0.000124951  19.1217  113.557
0.100452  38.1849  0.368284  908.787  0.000121628  19.2522  115.117
0.101819  38.6984  0.368276  927.365  0.000118393  19.3836  116.697
0.103204  39.2187  0.368268  946.323  0.000115244  19.5159  118.3
0.104609  39.7461  0.368261  965.668  0.00011218  19.6491  119.923
0.106033  40.2807  0.368253  985.407  0.000109197  19.7833  121.569
0.107476  40.8225  0.368245  1005.55  0.000106293  19.9183  123.238
0.108939  41.3715  0.368238  1026.1  0.000103467  20.0542  124.928
0.110421  41.928  0.368231  1047.08  0.000100716  20.1911  126.642
0.111924  42.492  0.368224  1068.48  9.80381e-05  20.3289  128.379
0.113447  43.0637  0.368217  1090.31  9.54318e-05  20.4676  130.139
0.114991  43.6429  0.36821  1112.59  9.28951e-05  20.6072  131.923
0.116556  44.23  0.368204  1135.33  9.04259e-05  20.7478  133.731
0.118143  44.8251  0.368197  1158.53  8.80226e-05  20.8894  135.563
0.119751  45.4283  0.368191  1182.2  8.56833e-05  21.0319  137.421
0.12138  46.0394  0.368185  1206.35  8.34064e-05  21.1754  139.303
0.123032  46.6588  0.368178  1231  8.11903e-05  21.3199  141.211
0.124707  47.2866  0.368172  1256.15  7.90332e-05  21.4653  143.144
0.126404  47.923  0.368167  1281.81  7.69336e-05  21.6118  145.104
0.128124  48.5676  0.368161  1307.99  7.48901e-05  21.7592  147.089
0.129868  49.221  0.368155  1334.7  7.2901e-05  21.9077  149.102
0.131636  49.8833  0.36815  1361.96  7.09651e-05  22.0571  151.142
0.133427  50.5546  0.368144  1389.77  6.90807e-05  22.2076  153.209
0.135243  51.2347  0.368139  1418.15  6.72467e-05  22.3591  155.304
0.137084  51.9239  0.368134  1447.1  6.54615e-05  22.5116  157.427
0.13895  52.6225  0.368129  1476.65  6.37241e-05  22.6652  159.578
0.140841  53.3306  0.368124  1506.79  6.2033e-05  22.8198  161.759
0.142757  54.0478  0.368119  1537.54  6.0387e-05  22.9754  163.969
0.1447  54.7747  0.368114  1568.92  5.8785e-05  23.1322  166.208
0.14667  55.5115  0.368109  1600.94  5.72257e-05  23.29  168.478
0.148666  56.2584  0.368105  1633.6  5.57081e-05  23.4489  170.777
0.150689  57.0148  0.3681  1666.93  5.4231e-05  23.6088  173.108
0.15274  57.7813  0.368096  1700.93  5.27933e-05  23.7699  175.47
0.154819  58.5584  0.368091  1735.62  5.1394e-05  23.9321  177.863
0.156926  59.3459  0.368087  1771.02  5.00322e-05  24.0953  180.288
0.159062  60.1435  0.368083  1807.13  4.87067e-05  24.2597  182.746
0.161226  60.9518  0.368079  1843.97  4.74166e-05  24.4253  185.236
0.163421  61.7711  0.368075  1881.55  4.6161e-05  24.5919  187.76
0.165645  62.6015  0.368071  1919.9  4.49389e-05  24.7597  190.317
0.167899  63.4424  0.368067  1959.01  4.37496e-05  24.9287  192.909
0.170184  64.2945  0.368064  1998.92  4.2592e-05  25.0988  195.534
0.172501  65.1581  0.36806  2039.63  4.14654e-05  25.2701  198.195
0.174848  66.0336  0.368056  2081.17  4.03689e-05  25.4426  200.891
0.177228  66.9199  0.368053  2123.54  3.93017e-05  25.6163  203.622
0.17964  67.818  0.368049  2166.76  3.82631e-05  25.7911  206.39
0.182085  68.7283  0.368046  2210.85  3.72523e-05  25.9672  209.194
0.184563  69.651  0.368043  2255.83  3.62686e-05  26.1445  212.035
0.187075  70.585  0.368039  2301.72  3.53112e-05  26.323  214.914
0.189621  71.5314  0.368036  2348.52  3.43794e-05  26.5028  217.831
0.192202  72.4906  0.368033  2396.26  3.34725e-05  26.6838  220.785
0.194818  73.4628  0.36803  2444.96  3.259e-05  26.866  223.779
0.197469  74.4468  0.368027  2494.63  3.17311e-05  27.0496  226.812
0.200157  75.4437  0.368024  2545.3  3.08952e-05  27.2344  229.885
0.202881  76.4541  0.368021  2596.98  3.00818e-05  27.4205  232.998
0.205642  77.4783  0.368018  2649.69  2.92901e-05  27.6079  236.151
0.208441  78.5147  0.368016  2703.45  2.85197e-05  27.7966  239.346
0.211277  79.5644  0.368013  2758.28  2.777e-05  27.9866  242.582
0.214153  80.6284  0.36801  2814.21  2.70403e-05  28.178  245.86
0.217068  81.7068  0.368008  2871.24  2.63303e-05  28.3707  249.18
0.220022  82.798  0.368005  2929.41  2.56393e-05  28.5647  252.544
0.223016  83.9029  0.368003  2988.73  2.49669e-05  28.7601  255.95
0.226052  85.0228  0.368  3049.22  2.43125e-05  28.9569  259.401
0.229128  86.158  0.367998  3110.91  2.36758e-05  29.1551  262.896
0.232246  87.3063  0.367995  3173.81  2.30561e-05  29.3547  266.435
0.235407  88.4688  0.367993  3237.96  2.24532e-05  29.5557  270.02
0.238611  89.6471  0.367991  3303.36  2.18664e-05  29.7581  273.65
0.241859  90.8414  0.367989  3370.06  2.12955e-05  29.962  277.327
0.24515  92.0491  0.367986  3438.06  2.07399e-05  30.1673  281.05
0.248487  93.2715  0.367984  3507.39  2.01993e-05  30.3741  284.82
0.251869  94.5105  0.367982  3578.07  1.96733e-05  30.5824  288.637
0.255297  95.7663  0.36798  3650.13  1.91614e-05  30.7922  292.503
0.258771  97.0359  0.367978  3723.6  1.86634e-05  31.0034  296.417
0.262293  98.3204  0.367976  3798.49  1.81788e-05  31.2162  300.379
0.265863  99.6223  0.367974  3874.83  1.77073e-05  31.4306  304.391
0.269481  100.942  0.367973  3952.65  1.72485e-05  31.6465  308.452
0.273149  102.276  0.367971  4031.97  1.68022e-05  31.8639  312.563
0.276866  103.624  0.367969  4112.81  1.63679e-05  32.0829  316.725
0.280634  104.991  0.367967  4195.21  1.59454e-05  32.3036  320.938
0.284454  106.377  0.367965  4279.18  1.55343e-05  32.5259  325.202
0.288325  107.777  0.367964  4364.75  1.51343e-05  32.7497  329.517
0.292249  109.192  0.367962  4451.95  1.47452e-05  32.9753  333.884
0.296227  110.626  0.36796  4540.81  1.43667e-05  33.2025  338.304
0.300258  112.08  0.367959  4631.35  1.39985e-05  33.4314  342.776
0.304345  113.548  0.367957  4723.59  1.36402e-05  33.662  347.301
0.308487  115.031  0.367956  4817.57  1.32917e-05  33.8943  351.88
0.312685  116.534  0.367954  4913.3  1.29527e-05  34.1284  356.512
0.316941  118.057  0.367953  5010.82  1.26229e-05  34.3642  361.198
0.321255  119.595  0.367951  5110.15  1.23022e-05  34.6019  365.938
0.325627  121.147  0.36795  5211.32  1.19902e-05  34.8413  370.732
0.330059  122.721  0.367949  5314.35  1.16867e-05  35.0825  375.582
0.334551  124.315  0.367947  5419.28  1.13915e-05  35.3256  380.486
0.339104  125.924  0.367946  5526.11  1.11043e-05  35.5706  385.445
0.343719  127.547  0.367945  5634.9  1.08251e-05  35.8175  390.459
0.348397  129.192  0.367943  5745.64  1.05535e-05  36.0663  395.528
0.353139  130.859  0.367942  5858.38  1.02894e-05  36.317  400.653
0.357945  132.54  0.367941  5973.14  1.00325e-05  36.5697  405.834
0.362816  134.233  0.36794  6089.94  9.78273e-06  36.8244  411.07
0.367754  135.95  0.367939  6208.81  9.53983e-06  37.0811  416.361
0.372759  137.69  0.367938  6329.77  9.30363e-06  37.3399  421.709
0.377833  139.444  0.367936  6452.85  9.07396e-06  37.6007  427.112
0.382975  141.208  0.367935  6578.06  8.85064e-06  37.8637  432.57
0.388187  142.996  0.367934  6705.43  8.63352e-06  38.1288  438.084
0.39347  144.809  0.367933  6834.98  8.42242e-06  38.3961  443.653
0.398825  146.635  0.367932  6966.74  8.2172e-06  38.6655  449.277
0.404253  148.469  0.367931  7100.72  8.01769e-06  38.9373  454.956
0.409755  150.329  0.36793  7236.94  7.82375e-06  39.2113  460.689
0.415332  152.213  0.367929  7375.42  7.63523e-06  39.4876  466.477
0.420985  154.111  0.367928  7516.18  7.45198e-06  39.7662  472.319
0.426714  156.013  0.367927  7659.23  7.27388e-06  40.0473  478.214
0.432522  157.942  0.367927  7804.6  7.10079e-06  40.3307  484.163
0.438408  159.897  0.367926  7952.29  6.93257e-06  40.6167  490.164
0.444375  161.864  0.367925  8102.32  6.7691e-06  40.9051  496.217
0.450423  163.832  0.367924  8254.69  6.61026e-06  41.1961  502.322
0.456553  165.827  0.367923  8409.42  6.45593e-06  41.4898  508.477
0.462767  167.849  0.367922  8566.52  6.30598e-06  41.786  514.683
0.469065  169.884  0.367922  8726  6.16031e-06  42.085  520.938
0.475449  171.914  0.367921  8887.85  6.0188e-06  42.3868  527.241
0.48192  173.972  0.36792  9052.08  5.88136e-06  42.6914  533.593
0.488478  176.057  0.367919  9218.7  5.74786e-06  42.9988  539.99
0.495127  178.155  0.367919  9387.7  5.61821e-06  43.3092  546.434
0.501865  180.242  0.367918  9559.07  5.49232e-06  43.6226  552.923
0.508696  182.357  0.367917  9732.82  5.37008e-06  43.9391  559.455
0.515619  184.501  0.367917  9908.92  5.25141e-06  44.2587  566.029
0.522636  186.657  0.367916  10087.4  5.1362e-06  44.5815  572.644
0.529749  188.794  0.367915  10268.2  5.02439e-06  44.9077  579.3
0.536959  190.961  0.367915  10451.3  4.91586e-06  45.2371  585.994
0.544267  193.158  0.367914  10636.7  4.81056e-06  45.5701  592.724
0.551675  195.365  0.367913  10824.4  4.70839e-06  45.9066  599.491
0.559183  197.545  0.367913  11014.4  4.60927e-06  46.2467  606.291
0.566793  199.756  0.367912  11206.6  4.51314e-06  46.5906  613.124
0.574507  201.997  0.367912  11401  4.41991e-06  46.9384  619.987
0.582326  204.247  0.367911  11597.5  4.32951e-06  47.2901  626.879
0.590252  206.463  0.367911  11796.1  4.24188e-06  47.6458  633.798
0.598285  208.708  0.36791  11996.8  4.15695e-06  48.0058  640.742
0.606427  210.984  0.36791  12199.6  4.07466e-06  48.3701  647.71
0.614681  213.269  0.367909  12404.2  3.99493e-06  48.7388  654.699
0.623047  215.508  0.367909  12610.8  3.91772e-06  49.1122  661.706
0.631526  217.778  0.367908  12819.3  3.84295e-06  49.4903  668.731
0.640121  220.078  0.367908  13029.5  3.77059e-06  49.8734  675.771
0.648833  222.389  0.367907  13241.4  3.70056e-06  50.2615  682.823
0.657664  224.641  0.367907  13454.9  3.63282e-06  50.6549  689.886
0.666614  226.923  0.367906  13669.9  3.56732e-06  51.0538  696.957
0.675687  229.236  0.367906  13886.4  3.50401e-06  51.4584  704.033
0.684883  231.561  0.367906  14104.2  3.44284e-06  51.8688  711.112
0.694204  233.812  0.367905  14323.3  3.38377e-06  52.2854  718.193
0.703652  236.095  0.367905  14543.5  3.32676e-06  52.7084  725.271
0.713229  238.408  0.367904  14764.7  3.27176e-06  53.1379  732.345
0.722936  240.734  0.367904  14986.7  3.21873e-06  53.5744  739.413
0.732775  242.972  0.367904  15209.6  3.16765e-06  54.0181  746.471
0.742748  245.241  0.367903  15433  3.11847e-06  54.4693  753.517
0.752857  247.541  0.367903  15656.9  3.07117e-06  54.9283  760.548
0.763103  249.855  0.367903  15881  3.0257e-06  55.3955  767.562
0.773489  252.067  0.367902  16105.3  2.98205e-06  55.8713  774.555
0.784016  254.309  0.367902  16329.6  2.94019e-06  56.3561  781.526
0.794686  256.581  0.367902  16553.6  2.90009e-06  56.8502  788.472
0.805502  258.869  0.367901  16777.2  2.86174e-06  57.3542  795.39
0.816465  261.04  0.367901  17000.1  2.8251e-06  57.8685  802.276
0.827577  263.241  0.367901  17222.2  2.79018e-06  58.3936  809.129
0.83884  265.471  0.367901  17443.2  2.75694e-06  58.9302  815.946
0.850256  267.72  0.3679  17662.9  2.72538e-06  59.4787  822.724
0.861828  269.836  0.3679  17881  2.69549e-06  60.0398  829.461
0.873558  271.981  0.3679  18097.3  2.66726e-06  60.6142  836.153
0.885447  274.155  0.3679  18311.4  2.64069e-06  61.2026  842.798
0.897498  276.35  0.367899  18523.2  2.61578e-06  61.8057  849.393
0.909712  278.398  0.367899  18732.2  2.59253e-06  62.4244  855.937
0.922093  280.473  0.367899  18938.3  2.57095e-06  63.0595  862.425
0.934643  282.577  0.367899  19141  2.55105e-06  63.712  868.857
0.947363  284.704  0.367898  19339.9  2.53284e-06  64.3829  875.228
0.960257  286.67  0.367898  19534.8  2.51633e-06  65.0732  881.537
0.973326  288.663  0.367898  19725.3  2.50156e-06  65.7842  887.782
0.986573  290.682  0.367898  19910.9  2.48855e-06  66.517  893.959
1  292.729  0.367898  20179.8  2.45565e-06  66.9779  900.067
